TITLE,
DATA TYPE,
ORIGIN,JASCO
OWNER,
DATE,23/04/19
TIME,13:22:11
SPECTROMETER/DATA SYSTEM,
LOCALE,1033
RESOLUTION,
DELTAX,-2
XUNITS,NANOMETERS
YUNITS,CD [mdeg]
Y2UNITS,HT [V]
Y3UNITS,ABSORBANCE
FIRSTX,  300.0000
LASTX,  240.0000
NPOINTS,      31
FIRSTY,    -0.30810
MAXY,     3.23340
MINY,    -2.65365
XYDATA
300.0000,-0.308101,272.038,0.934335
298.0000,0.0441299,272.825,0.944537
296.0000,-0.00131989,273.647,0.955196
294.0000,0.376002,274.703,0.968899
292.0000,0.534454,276.227,0.988666
290.0000,0.844313,277.105,1.00006
288.0000,1.14107,280.545,1.04009
286.0000,1.55858,283.146,1.06889
284.0000,1.83494,286.266,1.10323
282.0000,2.41647,289.747,1.14127
280.0000,2.50998,293.394,1.18082
278.0000,3.02749,297.37,1.22358
276.0000,3.09225,301.433,1.26688
274.0000,3.2334,305.65,1.31141
272.0000,3.17907,310.012,1.35704
270.0000,2.82191,314.787,1.40647
268.0000,2.76919,320.071,1.46054
266.0000,2.06778,325.617,1.51658
264.0000,1.50618,331.485,1.57508
262.0000,0.908311,338.003,1.63912
260.0000,0.464212,345.097,1.70767
258.0000,-0.26595,352.766,1.78043
256.0000,-0.766211,360.991,1.85693
254.0000,-1.06108,370.026,1.93913
252.0000,-1.48424,380.592,2.0328
250.0000,-2.09934,393.506,2.1437
248.0000,-1.56272,409.32,2.27415
246.0000,-1.47098,429.389,2.43119
244.0000,-2.12346,454.863,2.612
242.0000,-2.65365,488.034,2.83449
240.0000,0.210681,531.021,3.11021

##### Extended Information
[Comments]
Sample name
Comment
User
Division
Company,Northwestern

[Detailed Information]
Creation date,4/19/2023 1:22 PM

Data array type,Linear data array * 3
Horizontal axis,Wavelength [nm]
Vertical axis(1),CD [mdeg]
Vertical axis(2),HT [V]
Vertical axis(3),Abs
Start,300 nm
End,240 nm
Data interval,2 nm
Data points,31      

[Measurement Information]
Instrument name,J-810
Model name,J-810
Serial No.,A034061168

Accessory,PFD-425S
Accessory S/N,A008461180
  Temperature,80.05 C
  Cell length,10 mm

Measurement date,4/19/2023 1:09 PM

Photometric mode,CD, HT, Abs
Measure range,300 - 240 nm
Data pitch,2 nm
Sensitivity,Standard
D.I.T.,2 sec
Bandwidth,1.00 nm
Start mode,Immediately
Scanning speed,Step scan
Baseline correction,None
Shutter control,Auto
CD detector,PMT
PMT voltage,Auto


